*       51 | WAVE.EXAMPLE                                               
* S0,S1,S2,S3 (with emittance) [ev, phot/s/BW]
*        9                                                              
  9.750000E+01  2.107492E+09  8.130867E+07 -6.402843E-10 -4.656613E-09
  9.875000E+01  2.182124E+09  7.053802E+07 -1.280569E-09 -5.442416E-09
  1.000000E+02  2.246666E+09  5.922034E+07 -1.280569E-09 -3.259629E-09
  1.012500E+02  2.300529E+09  4.753192E+07 -1.746230E-10 -4.190952E-09
  1.025000E+02  2.343260E+09  3.565682E+07 -5.820766E-11 -1.862645E-09
  1.037500E+02  2.374553E+09  2.378403E+07  1.193257E-09 -2.793968E-09
  1.050000E+02  2.394245E+09  1.210448E+07 -7.858034E-10  0.000000E+00
  1.062500E+02  2.402316E+09  8.081042E+05 -8.440111E-10  0.000000E+00
  1.075000E+02  2.398886E+09 -9.919108E+06 -1.367880E-09 -5.587935E-09
