*       51 | WAVE.EXAMPLE                                               
* S0,S1,S2,S3 (with emittance) [ev, phot/s/BW/mm**2]
*        9                                                              
  9.750000E+01  2.067170E+07  1.963223E+07 -6.349087E-10 -4.083633E-09
  9.875000E+01  2.322673E+07  2.201451E+07 -8.509457E-10 -5.025864E-09
  1.000000E+02  2.583399E+07  2.444118E+07 -9.844006E-10 -4.690170E-09
  1.012500E+02  2.846888E+07  2.688921E+07  3.114343E-12 -4.920960E-09
  1.025000E+02  3.110665E+07  2.933551E+07 -3.284961E-10 -4.690170E-09
  1.037500E+02  3.372268E+07  3.175715E+07  1.369454E-10 -5.331040E-09
  1.050000E+02  3.629273E+07  3.413158E+07 -1.074873E-09 -5.069733E-09
  1.062500E+02  3.879316E+07  3.643690E+07  2.363473E-10 -5.739212E-09
  1.075000E+02  4.120116E+07  3.865202E+07  1.114607E-10 -5.891800E-09
